#Load(N)	Displacement (mm)
0.7	0.032
0.7	0.042
1.1	0.057
1.3	0.074
1.7	0.091
1.9	0.108
2.2	0.123
2.5	0.139
2.8	0.158
3.1	0.174
3.312	0.191
3.7	0.208
3.975	0.224
4.2	0.24
4.4	0.257
4.7	0.274
5.1	0.292
5.2	0.308
5.7	0.324
5.8	0.341
6.131	0.358
6.4	0.374
6.6	0.39
6.9	0.408
7.2	0.424
7.4	0.44
7.8	0.458
8.2	0.475
8.2	0.49
8.4	0.508
8.75	0.521
9.033	0.541
9.2	0.557
9.5	0.573
9.8	0.592
10.2	0.607
10.4	0.623
10.7	0.64
10.8	0.655
11.2	0.675
11.6	0.692
11.7	0.708
12.137	0.724
12.3	0.74
12.6	0.757
12.7	0.773
13.1	0.792
13.2	0.807
13.6	0.825
13.8	0.841
14.1	0.856
14.375	0.872
14.7	0.89
14.937	0.909
15.1	0.924
15.4	0.941
15.7	0.957
16.1	0.975
16.2	0.989
16.4	1.008
16.7	1.024
16.993	1.041
17.2	1.058
17.4	1.073
17.64	1.09
17.9	1.107
18.2	1.125
18.3	1.14
18.7	1.158
18.95	1.171
19.2	1.191
19.5	1.209
19.793	1.224
20.1	1.241
20.2	1.258
20.4	1.273
20.7	1.291
21	1.309
21.287	1.325
21.6	1.341
21.7	1.357
22.1	1.375
22.2	1.391
22.5	1.408
22.7	1.425
23.062	1.442
23.2	1.459
23.5	1.474
23.806	1.492
24.1	1.508
24.2	1.524
24.3	1.541
24.537	1.557
24.781	1.573
25.1	1.591
25.2	1.606
25.6	1.625
25.7	1.639
26.2	1.658
26.3	1.673
26.6	1.692
26.775	1.707
27	1.724
27.2	1.742
27.6	1.757
27.8	1.774
28	1.791
28.2	1.808
28.4	1.824
28.7	1.841
28.986	1.857
29.2	1.875
29.3	1.889
29.7	1.908
29.8	1.924
30.2	1.942
30.393	1.959
30.6	1.974
30.8	1.991
31	2.005
31.2	2.02
31.581	2.041
31.799	2.058
31.999	2.074
32.199	2.092
32.199	2.105
32.499	2.123
32.699	2.139
32.999	2.159
33.199	2.172
33.399	2.189
33.599	2.207
33.818	2.223
33.899	2.236
34.199	2.257
34.599	2.274
34.793	2.29
35.099	2.306
35.199	2.322
35.493	2.341
35.699	2.356
35.899	2.374
36.099	2.39
36.299	2.407
36.599	2.423
36.699	2.441
36.999	2.458
36.399	2.475
35.631	2.491
35.799	2.506
36.099	2.521
36.299	2.54
36.599	2.557
36.699	2.573
36.999	2.591
37.199	2.606
37.287	2.622
37.599	2.638
37.753	2.656
37.966	2.674
38.199	2.692
38.399	2.708
38.599	2.724
38.799	2.738
38.843	2.752
39.199	2.771
39.493	2.792
39.699	2.805
39.973	2.821
40.099	2.836
40.199	2.856
40.199	2.872
40.199	2.89
40.199	2.905
40.666	2.923
40.699	2.938
40.968	2.958
41.199	2.974
41.299	2.99
41.599	3.008
41.799	3.023
41.999	3.039
42.199	3.057
42.299	3.074
42.599	3.09
42.699	3.107
42.899	3.122
43.099	3.139
43.213	3.152
43.499	3.172
43.799	3.192
43.859	3.207
44.099	3.224
44.199	3.238
44.306	3.255
44.687	3.273
44.837	3.291
44.999	3.306
45.199	3.324
45.318	3.34
45.599	3.356
45.699	3.368
45.899	3.387
46.199	3.405
46.326	3.424
46.599	3.442
46.699	3.455
46.899	3.472
47.099	3.488
47.199	3.507
47.318	3.524
47.699	3.541
47.699	3.556
48.099	3.573
48.199	3.588
48.199	3.607
48.299	3.623
48.593	3.64
48.699	3.659
48.799	3.672
49.099	3.69
49.299	3.709
49.399	3.725
49.599	3.741
49.699	3.756
49.749	3.768
50.13	3.79
50.199	3.806
50.299	3.824
50.599	3.841
50.699	3.856
50.699	3.872
50.899	3.888
51.099	3.906
51.199	3.923
51.499	3.942
51.599	3.957
51.799	3.974
51.799	3.987
52.099	4.007
52.199	4.024
52.399	4.041
52.555	4.057
52.699	4.073
52.792	4.09
52.799	4.106
53.099	4.124
53.199	4.14
53.399	4.158
53.699	4.173
53.699	4.191
53.699	4.207
53.999	4.223
54.099	4.238
54.299	4.258
54.487	4.274
54.699	4.289
54.699	4.304
54.743	4.324
54.999	4.341
55.199	4.357
55.299	4.375
55.399	4.388
55.499	4.404
55.699	4.421
55.899	4.441
56.187	4.457
56.199	4.474
56.199	4.489
56.399	4.507
56.559	4.523
56.599	4.54
56.799	4.558
56.824	4.574
57.168	4.591
57.149	4.604
57.266	4.621
57.599	4.639
57.699	4.658
57.799	4.674
57.937	4.691
58.099	4.707
58.224	4.724
58.306	4.74
58.599	4.758
58.699	4.774
58.799	4.79
58.999	4.807
59.18	4.821
59.299	4.839
59.618	4.857
59.699	4.871
59.746	4.886
59.999	4.905
60.199	4.924
60.199	4.938
60.299	4.955
60.399	4.975
60.499	4.991
60.699	5.006
60.699	5.022
60.799	5.037
61.099	5.055
61.199	5.072
61.23	5.09
61.299	5.103
61.399	5.119
61.599	5.135
61.699	5.154
61.999	5.174
62.099	5.191
62.199	5.208
62.299	5.223
62.299	5.24
62.399	5.255
62.699	5.274
62.699	5.291
62.699	5.307
62.899	5.322
63.061	5.341
63.143	5.356
63.199	5.37
63.206	5.387
63.586	5.409
63.599	5.423
63.699	5.44
63.899	5.457
63.999	5.474
64.099	5.491
64.199	5.506
64.199	5.521
64.199	5.536
64.299	5.553
64.499	5.571
64.592	5.591
64.699	5.606
64.699	5.621
64.699	5.638
64.999	5.652
65.199	5.673
65.199	5.692
65.299	5.707
65.399	5.724
65.499	5.739
65.599	5.757
65.699	5.774
65.899	5.792
65.919	5.807
66.099	5.824
66.199	5.841
66.199	5.857
66.199	5.87
66.399	5.891
66.499	5.908
66.599	5.923
66.699	5.942
66.699	5.958
66.799	5.974
66.874	5.989
67.099	6.008
67.199	6.022
67.199	6.04
67.299	6.054
67.399	6.074
67.599	6.09
67.599	6.106
67.699	6.124
67.799	6.14
67.899	6.159
67.999	6.172
68.099	6.192
68.199	6.207
68.211	6.225
68.199	6.241
68.399	6.258
68.399	6.269
68.636	6.292
68.699	6.307
68.699	6.323
68.799	6.342
68.899	6.356
68.999	6.375
68.999	6.388
69.199	6.409
69.199	6.424
69.299	6.442
69.443	6.458
69.599	6.475
69.599	6.491
69.699	6.508
69.699	6.525
69.799	6.541
69.949	6.557
70.068	6.574
70.199	6.592
70.199	6.607
70.199	6.625
70.199	6.641
70.299	6.659
70.299	6.673
70.599	6.692
70.511	6.707
70.699	6.724
70.699	6.74
70.766	6.757
70.88	6.774
70.999	6.789
71.199	6.808
71.199	6.824
71.199	6.842
71.199	6.858
71.199	6.875
71.299	6.888
71.499	6.908
71.599	6.923
71.699	6.941
71.799	6.958
71.799	6.974
72.099	6.99
72.199	7.006
72.146	7.023
72.199	7.041
72.199	7.058
72.199	7.072
72.199	7.092
72.199	7.105
72.199	7.12
72.299	7.136
72.593	7.157
72.499	7.174
72.699	7.191
72.699	7.206
72.799	7.223
72.799	7.239
72.899	7.255
73.019	7.275
73.099	7.29
73.099	7.306
73.124	7.319
73.199	7.34
73.299	7.357
73.199	7.374
73.399	7.389
73.499	7.408
73.599	7.424
73.699	7.441
73.699	7.458
73.699	7.475
73.799	7.491
73.972	7.506
73.992	7.523
74.099	7.54
74.199	7.557
74.199	7.572
74.199	7.59
74.218	7.607
74.299	7.622
74.299	7.636
74.599	7.656
74.499	7.675
74.599	7.691
74.599	7.708
74.699	7.722
74.699	7.737
74.699	7.751
74.799	7.771
74.919	7.791
74.893	7.806
75.099	7.82
75.099	7.837
75.199	7.856
75.099	7.87
75.199	7.886
75.299	7.905
75.399	7.924
75.299	7.937
75.599	7.958
75.499	7.973
75.505	7.989
75.686	8.009
75.699	8.022
75.799	8.039
75.799	8.056
75.718	8.072
76.099	8.091
75.999	8.107
76.099	8.122
76.099	8.138
76.099	8.153
76.199	8.173
76.299	8.191
76.199	8.207
76.399	8.224
76.399	8.238
76.399	8.253
76.499	8.27
76.599	8.291
76.599	8.306
76.699	8.323
76.668	8.337
76.699	8.352
76.699	8.369
76.899	8.389
76.899	8.404
77.099	8.424
77.099	8.441
77.099	8.456
77.099	8.473
77.199	8.489
77.199	8.507
77.199	8.522
77.212	8.539
77.299	8.552
77.399	8.57
77.339	8.587
77.599	8.608
77.499	8.624
77.499	8.637
77.599	8.653
77.599	8.674
77.752	8.691
77.699	8.707
77.699	8.725
77.799	8.739
77.818	8.758
77.899	8.771
77.999	8.79
77.999	8.807
78.005	8.823
78.192	8.841
77.999	8.856
78.199	8.871
78.199	8.888
78.299	8.907
78.199	8.924
78.299	8.941
78.299	8.957
78.399	8.974
78.372	8.986
78.511	9.005
78.699	9.024
78.599	9.041
78.699	9.056
78.699	9.074
78.799	9.091
78.799	9.106
78.899	9.122
78.799	9.14
78.949	9.158
78.967	9.173
79.199	9.19
79.099	9.207
79.099	9.224
79.199	9.24
79.159	9.257
79.199	9.273
79.199	9.29
79.199	9.304
79.299	9.323
79.299	9.341
79.199	9.355
79.312	9.37
79.199	9.385
79.499	9.404
79.399	9.423
79.499	9.438
79.599	9.455
79.499	9.474
79.499	9.487
79.672	9.504
79.699	9.522
79.699	9.541
79.799	9.556
79.799	9.572
79.899	9.591
79.799	9.605
79.799	9.619
79.899	9.636
80.099	9.657
80.099	9.673
80.099	9.69
80.199	9.708
80.199	9.723
80.199	9.74
80.199	9.757
80.199	9.774
80.199	9.789
80.199	9.804
80.199	9.82
80.299	9.837
80.399	9.856
80.299	9.873
80.239	9.886
80.399	9.904
80.399	9.925
80.399	9.94
80.599	9.956
80.499	9.974
80.449	9.988
80.532	10.004
80.599	10.02
80.699	10.039
80.699	10.056
80.699	10.073
80.799	10.092
80.699	10.107
80.792	10.122
80.699	10.137
80.899	10.154
80.799	10.175
80.799	10.191
80.917	10.208
80.899	10.224
80.899	10.238
81.061	10.253
81.099	10.274
81.099	10.29
81.099	10.307
81.099	10.323
81.199	10.34
81.099	10.356
81.199	10.371
81.199	10.39
81.299	10.408
81.199	10.423
81.132	10.438
81.299	10.457
81.299	10.473
81.299	10.489
81.499	10.505
81.299	10.522
81.399	10.539
81.199	10.554
81.499	10.569
81.499	10.586
81.411	10.608
81.399	10.62
81.599	10.634
81.599	10.653
81.699	10.672
81.699	10.687
81.699	10.709
81.699	10.724
81.699	10.737
81.699	10.753
81.699	10.771
81.799	10.791
81.699	10.807
81.799	10.823
81.799	10.84
81.817	10.857
81.799	10.871
81.799	10.886
81.799	10.904
81.799	10.925
81.972	10.941
81.811	10.957
81.992	10.975
81.799	10.987
82.099	11.005
81.999	11.025
81.899	11.04
81.899	11.052
82.099	11.071
82.165	11.091
81.949	11.105
82.199	11.121
82.199	11.141
82.199	11.158
81.999	11.171
82.199	11.188
82.199	11.208
82.199	11.225
82.199	11.239
82.211	11.258
82.199	11.271
82.249	11.29
82.199	11.308
82.199	11.324
82.299	11.341
82.199	11.357
82.199	11.375
82.199	11.389
82.299	11.408
82.299	11.424
82.311	11.443
82.472	11.459
82.399	11.475
82.399	11.49
82.561	11.507
82.299	11.523
82.199	11.541
82.199	11.558
82.199	11.573
82.299	11.589
82.199	11.607
82.599	11.623
82.499	11.64
82.599	11.657
82.499	11.671
82.68	11.689
82.599	11.707
82.699	11.724
82.699	11.739
82.699	11.758
82.699	11.774
82.699	11.791
82.699	11.808
82.699	11.823
82.799	11.841
82.699	11.856
82.799	11.875
82.699	11.888
82.799	11.905
82.867	11.924
82.799	11.941
82.699	11.957
82.699	11.974
82.799	11.989
82.699	12.006
82.699	12.019
82.899	12.041
82.774	12.057
82.799	12.071
82.999	12.088
82.699	12.107
82.852	12.123
82.699	12.135
83.08	12.154
82.799	12.175
82.817	12.189
82.899	12.207
82.799	12.224
82.825	12.237
82.899	12.255
83.099	12.274
82.925	12.291
83.055	12.307
82.899	12.321
83.099	12.339
82.999	12.356
82.98	12.373
82.899	12.387
83.099	12.405
83.199	12.425
83.099	12.44
83.099	12.458
82.999	12.475
83.099	12.49
83.199	12.506
83.199	12.522
83.099	12.54
83.112	12.557
83.13	12.571
83.199	12.587
83.067	12.606
83.099	12.622
83.099	12.636
83.199	12.652
83.199	12.673
83.199	12.689
83.199	12.706
83.099	12.723
82.999	12.736
83.199	12.752
83.199	12.769
83.199	12.786
83.199	12.804
83.199	12.82
83.199	12.837
83.261	12.855
83.099	12.868
83.199	12.885
83.199	12.904
83.199	12.923
83.199	12.939
83.199	12.957
83.199	12.972
83.18	12.987
83.199	13.002
83.199	13.023
83.299	13.041
83.099	13.055
83.199	13.069
83.286	13.09
83.199	13.107
83.099	13.12
83.199	13.136
83.199	13.153
83.199	13.172
83.199	13.188
83.199	13.206
83.199	13.224
83.049	13.236
83.199	13.253
83.199	13.273
83.199	13.288
83.099	13.301
83.239	13.32
83.199	13.341
82.999	13.355
83.299	13.369
83.199	13.387
83.199	13.404
83.252	13.422
83.299	13.44
83.099	13.456
83.099	13.475
83.099	13.488
83.199	13.506
83.199	13.523
83.199	13.54
83.199	13.555
83.199	13.573
83.199	13.591
82.999	13.605
82.999	13.605
